# 
# MS.PreferredSpectrumFormat = 0
# MS.UncentroidingHalfWidth = 0.02
# MS.UncentroidingPointsPerDa = 200
# MS.AlwaysUncentroid = 1
# MS.RegriddingPointsPerDa = 200
# MS.AggregationMethod = 1
# MS.MinPeakCount = 1
# MS.MinPeakCharge = 1
# MS.MaxPeakCharge = 5
# MSMS.PreferredSpectrumFormat = 0
# MSMS.UncentroidingHalfWidth = 0.1
# MSMS.UncentroidingPointsPerDa = 25
# MSMS.AlwaysUncentroid = 1
# MSMS.RegriddingPointsPerDa = 25
# MSMS.AggregationMethod = 2
# MSMS.MinPeakCount = 10
# MSMS.MinPeakCharge = 1
# MSMS.MaxPeakCharge = 2
# MSMS.UsePrecursorAsMaxCharge = 1
# MSMS.PrecursorChargeSources = 1; 0
# MSMS.PrecursorDefaultCharges = 2; 3
# MSMS.RedeterminePrecursorMZ = 1
# MSMS.PrecursorMZTolerance = 1.2
# MSMS.IgnoreSingleChargedPrecursor = 1
# TimeDomain.MinPrecursorMass = 700
# TimeDomain.MaxPrecursorMass = 16000
# TimeDomain.PrecursorGroupingTolerance = 0.1
# TimeDomain.MaxIntermediateTime = 0
# TimeDomain.MaxIntermediateScans = 5
# TimeDomain.UseIntermediateScanCount = 0
# TimeDomain.MinScansInGroup = 1
# TimeDomain.CollapseMSn = 0
# PeakSelection.MS.FilteringThreshold = 0.6
# PeakSelection.MS.MinFilteringPeakMZ = 50
# PeakSelection.MS.MaxFilteringPeakMZ = 100000
# PeakSelection.MS.FilteringMinSNRatio = 2
# PeakSelection.MS.MinPeakWidth = 0.001
# PeakSelection.MS.ExpectedPeakWidth = 0.05
# PeakSelection.MS.MaxPeakWidth = 1
# PeakSelection.MS.MaxIterations = 500
# PeakSelection.MS.RejectWidthOutliers = 0
# PeakSelection.MS.BaselineCorrection = 0
# PeakSelection.MS.BaselineSubtractMethod = 0
# PeakSelection.MS.PeakFitMethod = 0
# PeakSelection.MS.IsotopeEnvelopeMode = 0
# PeakSelection.MS.IsotopePeakIntensities = 
# PeakSelection.MS.SinglePeakCharge = 1
# PeakSelection.MS.SinglePeakWindow = 0
# PeakSelection.MS.MinSglPeakWindowMZ = 112.5
# PeakSelection.MS.MaxSglPeakWindowMZ = 121.5
# PeakSelection.MSMS.FilteringThreshold = 0.6
# PeakSelection.MSMS.MinFilteringPeakMZ = 50
# PeakSelection.MSMS.MaxFilteringPeakMZ = 100000
# PeakSelection.MSMS.FilteringMinSNRatio = 20
# PeakSelection.MSMS.MinPeakWidth = 0.001
# PeakSelection.MSMS.ExpectedPeakWidth = 0.05
# PeakSelection.MSMS.MaxPeakWidth = 1
# PeakSelection.MSMS.MaxIterations = 500
# PeakSelection.MSMS.RejectWidthOutliers = 0
# PeakSelection.MSMS.BaselineCorrection = 0
# PeakSelection.MSMS.BaselineSubtractMethod = 0
# PeakSelection.MSMS.PeakFitMethod = 0
# PeakSelection.MSMS.IsotopeEnvelopeMode = 0
# PeakSelection.MSMS.IsotopePeakIntensities = 
# PeakSelection.MSMS.SinglePeakCharge = 1
# PeakSelection.MSMS.SinglePeakWindow = 0
# PeakSelection.MSMS.MinSglPeakWindowMZ = 123
# PeakSelection.MSMS.MaxSglPeakWindowMZ = 134
# 
_DISTILLER_MDRO_VERSION=2.4.3.0
_DISTILLER_RAWFILE={1}\\10.152.171.215\msdata5$\users_files\Tobias\master\data\HeLa\2_nd_measurenment\P015940\01533_B12_P015940_B00_A00_R3.raw

BEGIN IONS
TITLE=1: Scan 1188 (rt=6.60592) [\\10.152.171.215\msdata5$\users_files\Tobias\master\data\HeLa\2_nd_measurenment\P015940\01533_B12_P015940_B00_A00_R3.raw]
PEPMASS=706.36139 71461.969
CHARGE=2+
SCANS=1188
RAWSCANS=sn1188
RTINSECONDS=396.35498
204.31424	59.349471
103.05781	46.728367
122.07158	61.417181
126.12751	550.91797
128.91688	63.887837
131.13819	261.9358
136.06173	133.61183
161.92276	78.765653
169.24304	86.027791
182.96066	80.344406
186.97254	142.94515
221.62854	103.99882
228.92577	163.24859
229.80252	113.48209
230.16954	215.25076
242.29512	138.27892
250.4127	143.70924
269.42612	145.81579
291.86313	153.701
302.33977	145.90388
605.39201	166.10697
344.96353	158.82732
368.19181	157.1543
405.12793	353.87703
460.1637	145.9289
520.46997	157.48756
532.38251	180.84403
550.76104	163.07467
586.78302	325.15437
599.01569	171.23512
622.18194	173.26463
639.40033	186.1889
646.70093	206.34201
703.47499	176.70333
706.4726	398.53908
789.15094	176.9364
818.98749	192.69854
855.11951	167.488
882.58978	187.94894
903.6792	205.71846
937.28412	163.96145
984.98304	176.52544
1019.8998	168.52068
1053.494	200.86025
1126.9722	192.84331
1132.8113	253.08634
1149.6116	176.98696
1320.0129	180.1467
1375.1542	178.29919
END IONS

BEGIN IONS
TITLE=2: Scan 1189 (rt=6.60834) [\\10.152.171.215\msdata5$\users_files\Tobias\master\data\HeLa\2_nd_measurenment\P015940\01533_B12_P015940_B00_A00_R3.raw]
PEPMASS=701.45941 53704.844
CHARGE=2+
SCANS=1189
RAWSCANS=sn1189
RTINSECONDS=396.50059
103.39834	60.172115
107.25397	65.702234
108.70105	57.307054
115.63459	57.388779
119.1158	69.603273
119.83683	61.861148
126.12763	844.25869
130.10489	67.84436
261.2693	184.54097
136.06113	147.97978
141.86787	67.688328
142.29805	70.613187
144.39944	72.142445
184.2327	143.64618
194.76622	154.87661
213.62727	159.12147
229.62092	145.75788
460.17402	212.35635
231.01366	94.408539
235.94111	139.40023
340.22614	145.94916
372.0744	171.85256
395.763	158.80824
422.6015	132.149
439.80762	161.6182
453.90329	180.12248
518.04291	176.21379
569.7934	175.01973
612.44635	169.42812
700.88696	166.90543
701.4762	228.28412
787.09234	158.65776
857.51184	178.4782
907.75592	165.41571
937.88922	169.03012
1013.4158	185.59259
1073.1865	201.71137
1174.4119	208.70565
1218.2748	169.58643
1346.9924	184.16079
END IONS

BEGIN IONS
TITLE=3: Scan 1189 (rt=6.60834) [\\10.152.171.215\msdata5$\users_files\Tobias\master\data\HeLa\2_nd_measurenment\P015940\01533_B12_P015940_B00_A00_R3.raw]
PEPMASS=701.45941 53704.844
CHARGE=3+
SCANS=1189
RAWSCANS=sn1189
RTINSECONDS=396.50059
103.39834	60.172115
107.25397	65.702234
108.70105	57.307054
115.63459	57.388779
119.1158	69.603273
119.83683	61.861148
126.12763	844.25869
388.29967	75.469289
261.2693	184.54097
136.06113	147.97978
141.86787	67.688328
142.29805	70.613187
144.39944	72.142445
184.2327	143.64618
194.76622	154.87661
213.62727	159.12147
229.62092	145.75788
460.17402	212.35635
231.01366	94.408539
235.94111	139.40023
340.22614	145.94916
372.0744	171.85256
395.763	158.80824
422.6015	132.149
439.80762	161.6182
453.90329	180.12248
518.04291	176.21379
569.7934	175.01973
612.44635	169.42812
700.88696	166.90543
701.4762	228.28412
787.09234	158.65776
857.51184	178.4782
907.75592	165.41571
937.88922	169.03012
1013.4158	185.59259
1073.1865	201.71137
1174.4119	208.70565
1218.2748	169.58643
1346.9924	184.16079
END IONS

BEGIN IONS
TITLE=4: Scan 1190 (rt=6.61086) [\\10.152.171.215\msdata5$\users_files\Tobias\master\data\HeLa\2_nd_measurenment\P015940\01533_B12_P015940_B00_A00_R3.raw]
PEPMASS=656.76848 80258.375
CHARGE=2+
SCANS=1190
RAWSCANS=sn1190
RTINSECONDS=396.65133
101.01335	49.481016
106.03408	54.872374
112.05033	150.38098
233.02615	71.584342
120.00737	56.143949
126.12768	908.31568
255.67319	70.118403
131.13831	371.80563
132.17133	40.065368
136.0615	83.062207
143.1575	56.159987
145.93192	140.50524
163.83913	135.35005
173.12634	143.82425
200.75215	80.451719
204.02179	145.32162
205.41185	132.49734
225.15898	171.88822
228.92833	155.95521
246.93968	163.37128
257.02014	159.43101
271.65088	137.54817
295.07498	129.47687
343.88236	146.19884
413.16464	171.76702
425.83551	154.95575
432.04373	138.92905
441.82877	176.30046
457.0838	144.5444
459.69	207.91018
477.17163	168.4443
494.06189	155.71578
1002.5063	231.90991
503.75473	382.18126
505.18191	158.72548
541.03626	183.68036
543.5414	163.20682
545.43671	182.90941
596.58515	170.25983
646.11865	169.62514
1313.7949	492.54033
658.47894	173.53618
777.09613	165.23105
785.57062	169.93346
814.2207	181.24479
846.6463	174.02017
956.73571	175.54682
1035.7944	202.10138
1150.2761	190.35211
1184.4249	169.66756
1201.9836	166.38624
1208.8182	191.89216
1253.2809	158.63678
1259.1486	181.01641
END IONS

BEGIN IONS
TITLE=5: Scan 1191 (rt=6.61328) [\\10.152.171.215\msdata5$\users_files\Tobias\master\data\HeLa\2_nd_measurenment\P015940\01533_B12_P015940_B00_A00_R3.raw]
PEPMASS=655.38959 92910.844
CHARGE=2+
SCANS=1191
RAWSCANS=sn1191
RTINSECONDS=396.79686
104.07368	47.862696
223.09377	185.29258
114.29119	63.024515
115.02046	59.713372
122.45841	57.435318
245.33385	77.905558
126.12766	853.1799
131.14551	335.25339
136.06174	253.24833
147.41644	974.89999
161.79848	75.824251
174.75044	126.3434
178.21213	230.97311
187.79117	119.05155
213.22559	148.01124
225.15935	165.44418
234.00435	147.98069
254.24474	149.07242
269.18311	154.01432
600.37065	192.90154
303.55136	107.54447
607.9086	165.36005
313.00501	151.12731
325.32244	169.82082
325.64459	129.89177
405.94934	139.37027
411.25681	158.18365
422.82031	167.29115
452.29845	154.08974
482.73205	190.3125
494.86566	197.2344
499.79856	679.83272
512.55682	161.91189
567.88251	171.49385
572.5564	159.59364
594.70703	197.61975
602.9538	158.46117
655.89941	363.49505
718.19677	193.75126
800.97625	217.64511
827.21521	186.92074
846.23364	179.62775
872.75751	175.47091
881.13718	165.34943
884.17444	174.74081
924.37933	166.59362
929.23877	208.26874
983.99994	170.20343
1026.8017	203.26548
1092.0405	176.79736
1177.8289	159.06913
1249.5264	166.81932
1265.4128	170.75621
END IONS

BEGIN IONS
TITLE=6: Scan 1191 (rt=6.61328) [\\10.152.171.215\msdata5$\users_files\Tobias\master\data\HeLa\2_nd_measurenment\P015940\01533_B12_P015940_B00_A00_R3.raw]
PEPMASS=655.38959 92910.844
CHARGE=3+
SCANS=1191
RAWSCANS=sn1191
RTINSECONDS=396.79686
104.07368	47.862696
223.09377	185.29258
114.29119	63.024515
115.02046	59.713372
243.90934	60.785139
367.49712	81.807722
126.12766	853.1799
131.14551	335.25339
136.06174	253.24833
147.41644	974.89999
161.79848	75.824251
174.75044	126.3434
178.21213	230.97311
187.79117	119.05155
213.22559	148.01124
225.15935	165.44418
234.00435	147.98069
254.24474	149.07242
269.18311	154.01432
600.37065	192.90154
303.55136	107.54447
607.9086	165.36005
313.00501	151.12731
973.94104	277.80333
405.94934	139.37027
411.25681	158.18365
422.82031	167.29115
452.29845	154.08974
482.73205	190.3125
494.86566	197.2344
499.79856	679.83272
512.55682	161.91189
567.88251	171.49385
572.5564	159.59364
594.70703	197.61975
602.9538	158.46117
655.89941	363.49505
718.19677	193.75126
800.97625	217.64511
827.21521	186.92074
846.23364	179.62775
872.75751	175.47091
881.13718	165.34943
884.17444	174.74081
924.37933	166.59362
929.23877	208.26874
983.99994	170.20343
1026.8017	203.26548
1092.0405	176.79736
1177.8289	159.06913
1249.5264	166.81932
1265.4128	170.75621
END IONS

BEGIN IONS
TITLE=7: Scan 1199 (rt=6.64955) [\\10.152.171.215\msdata5$\users_files\Tobias\master\data\HeLa\2_nd_measurenment\P015940\01533_B12_P015940_B00_A00_R3.raw]
PEPMASS=418.88498 255071.53
CHARGE=2+
SCANS=1199
RAWSCANS=sn1199
RTINSECONDS=398.97275
126.12762	481.28889
134.95629	1010.946
293.80722	298.09174
150.95102	2592.099
168.95192	352.07965
178.94588	3029.3211
192.96217	294.37242
196.95665	884.5329
208.88306	1506.2917
220.91802	234.61838
224.89619	1420.8758
452.77931	539.19968
236.87766	1120.5069
508.76942	570.7787
268.8862	3999.5798
276.89255	372.25737
280.87073	887.05857
282.86659	311.04412
286.89573	371.94356
293.5294	285.28501
296.89581	730.1205
298.90755	980.80388
340.88878	920.64784
358.87768	1354.7967
END IONS

BEGIN IONS
TITLE=8: Scan 1364 (rt=7.65791) [\\10.152.171.215\msdata5$\users_files\Tobias\master\data\HeLa\2_nd_measurenment\P015940\01533_B12_P015940_B00_A00_R3.raw]
PEPMASS=418.88483 567277.31
CHARGE=2+
SCANS=1364
RAWSCANS=sn1364
RTINSECONDS=459.47475
134.9562	2923.4537
150.95099	7754.8541
168.96147	986.74747
178.9458	10272.464
196.9565	2651.3318
208.88283	3855.6536
224.89628	4682.4415
452.77862	1940.5309
236.87769	2915.2528
254.88804	953.98695
268.88599	11636.912
280.86795	2756.4871
286.89174	1479.0782
340.868	2210.7261
END IONS

BEGIN IONS
TITLE=9: Scan 1370 (rt=7.68075) [\\10.152.171.215\msdata5$\users_files\Tobias\master\data\HeLa\2_nd_measurenment\P015940\01533_B12_P015940_B00_A00_R3.raw]
PEPMASS=812.9454 240197.28
CHARGE=3+
SCANS=1370
RAWSCANS=sn1370
RTINSECONDS=460.84495
104.10687	865.86877
109.02826	203.20552
376.14955	211.61645
253.0705	840.95905
406.17019	172.11379
274.25017	75.681154
145.04951	907.14786
153.56623	77.508721
156.06548	182.83839
162.07581	261.48714
165.83756	76.843185
174.0761	143.56176
178.21493	209.97827
184.07314	3043.8281
196.06055	81.872328
256.09457	174.39573
266.99795	149.29704
291.10965	611.56942
925.34753	341.90869
310.1045	2513.3456
623.21777	112.24314
327.13055	642.12179
655.22307	948.84395
338.10818	397.45278
346.12577	438.96522
358.65585	156.88404
358.91008	285.15659
384.04645	132.2221
408.64948	1010.8295
417.65561	670.20096
425.74493	170.38937
444.6135	166.76433
489.18301	827.47935
978.3415	2744.3022
496.68988	175.51257
507.19514	1168.0856
511.18051	183.92905
558.08594	190.35417
1140.3973	881.60396
586.76971	299.27857
1301.4559	428.25461
652.22412	534.83168
657.69751	146.18262
660.88879	170.87484
671.70758	163.73199
675.7052	214.83073
722.50647	174.67628
1464.507	593.89562
769.60724	189.58071
814.27374	398.81438
1026.6998	170.89693
1036.3263	228.13344
1099.1183	163.59314
1150.0206	166.42476
1220.1515	167.72526
1239.4932	159.87283
1271.2031	168.24129
1318.5328	179.86508
1387.697	170.47528
1396.4623	163.33538
1406.8712	154.89481
1437.1938	155.39878
1643.3903	174.96752
1950.2174	188.79999
END IONS

BEGIN IONS
TITLE=10: Scan 1371 (rt=7.68318) [\\10.152.171.215\msdata5$\users_files\Tobias\master\data\HeLa\2_nd_measurenment\P015940\01533_B12_P015940_B00_A00_R3.raw]
PEPMASS=1225.922 410896.09
CHARGE=2+
SCANS=1371
RAWSCANS=sn1371
RTINSECONDS=460.99067
104.10696	2367.7334
124.9997	369.71165
127.03891	397.48969
275.1024	174.31229
140.07071	2276.52
145.04966	144.58194
147.41911	488.06754
178.12271	171.39732
184.07323	11890.209
196.79677	141.12583
212.42872	151.40339
226.08359	972.65507
246.05232	165.10412
256.09427	583.53869
268.09518	227.38486
305.1243	214.72592
310.10475	7324.4345
323.13621	1483.8268
328.1153	1978.3452
341.14688	1217.2102
346.1257	839.94822
358.22644	167.60222
375.30906	161.43648
830.30895	802.08905
848.31968	899.72172
437.95609	159.86598
471.16458	168.33734
485.18805	167.26711
490.16815	1197.384
992.36026	1146.1683
499.73318	177.23536
503.19979	1081.4768
521.2095	912.47589
521.84088	174.72033
549.04749	175.41291
577.7088	264.46093
589.47895	179.72677
652.22198	391.97299
658.7384	224.15456
664.07705	201.29457
665.25763	365.86896
END IONS

BEGIN IONS
TITLE=11: Scan 1374 (rt=7.69299) [\\10.152.171.215\msdata5$\users_files\Tobias\master\data\HeLa\2_nd_measurenment\P015940\01533_B12_P015940_B00_A00_R3.raw]
PEPMASS=1230.9366 220256.31
CHARGE=2+
SCANS=1374
RAWSCANS=sn1374
RTINSECONDS=461.57918
101.68315	59.712373
104.10699	578.00688
107.03649	56.872408
219.11218	271.95453
112.07562	75.379599
117.32168	59.534911
127.03881	369.20594
136.06177	147.41043
140.07055	1507.7989
145.04939	318.24797
158.08122	644.86507
317.42853	85.654215
162.07662	83.410564
346.76862	80.712902
347.82457	136.52184
176.09162	4768.7316
179.72776	141.38285
184.07319	4165.2117
220.23451	149.80897
226.08412	439.59999
246.82918	141.69057
251.71712	153.71132
256.09484	411.81451
266.84762	131.53247
280.71762	148.37383
286.10504	166.8562
323.13598	961.75384
649.21324	209.30585
327.97717	157.79562
338.92773	169.75368
341.14692	950.24442
370.39307	170.79181
751.81156	203.03183
379.2304	164.65353
439.56024	164.40631
485.96719	157.80039
999.39256	203.97467
503.1991	1039.7442
512.08942	163.95902
554.6286	168.7538
563.92267	180.63889
567.17096	186.58665
600.75708	212.12479
665.25555	590.07912
686.98339	183.24117
694.45178	187.39724
1502.3254	174.24747
755.09851	168.61499
773.2359	181.44164
827.30744	198.62289
860.15076	164.64763
912.38397	176.65272
933.62658	166.44974
972.07312	215.13633
1035.3961	163.78811
1039.3967	168.79574
1058.6625	155.64458
1063.969	172.46369
1123.8735	179.73826
1137.6125	199.93302
1157.7139	161.29607
1204.8453	175.42891
1298.3682	164.49057
1434.9852	171.02646
1464.5791	162.3896
1504.5112	145.18987
1598.1255	150.83561
1643.7471	196.66562
1971.1165	165.28494
END IONS

BEGIN IONS
TITLE=12: Scan 1375 (rt=7.69541) [\\10.152.171.215\msdata5$\users_files\Tobias\master\data\HeLa\2_nd_measurenment\P015940\01533_B12_P015940_B00_A00_R3.raw]
PEPMASS=817.61651 144465.97
CHARGE=3+
SCANS=1375
RAWSCANS=sn1375
RTINSECONDS=461.72474
104.10682	296.75004
114.16424	58.696499
245.96996	62.326226
376.14905	88.796111
253.07063	383.02639
140.07034	242.39267
145.0493	387.10266
147.42247	543.9557
454.93811	163.52789
154.24062	73.039351
171.07704	174.78996
176.09169	143.48945
184.07309	1507.1906
371.56856	103.96835
187.88582	151.47698
196.23695	146.42054
204.08609	184.2921
213.2235	157.83857
218.18282	146.86875
478.57731	172.01714
242.66934	150.45191
249.12387	179.01885
258.24402	149.6777
271.77502	151.66475
302.48822	159.45291
303.80316	163.49264
310.10483	1051.7117
622.64778	202.51188
317.33157	154.42893
323.13617	374.97295
328.1156	335.10207
338.10797	187.60201
374.02587	159.69932
390.7865	170.53706
403.06342	167.66767
830.30718	465.18027
421.32117	171.13053
467.48898	159.772
490.16687	350.30813
496.68451	668.89961
503.19951	339.94546
504.18831	42.58667
511.39374	165.56937
521.21142	236.83052
548.59179	184.23314
582.67102	158.57978
615.67668	185.91388
617.72653	158.45559
626.75311	193.32801
652.22162	209.29063
679.64972	196.99827
727.98169	172.00441
758.38138	200.40352
760.43368	158.75957
809.91736	182.0661
863.49493	164.37224
873.62506	238.38818
1012.9548	168.94165
1020.4391	238.62157
1090.5352	208.33971
1127.6401	162.2519
1149.9907	181.16962
1196.5559	200.22339
1252.5958	168.23201
1273.367	179.09459
1321.2489	182.60121
1387.2308	162.92742
1394.6977	184.85361
1445.3561	187.36046
1541.0708	153.14289
1561.2486	168.19998
1623.5334	166.67942
1687.1546	198.44018
1829.1951	167.27362
1888.4899	218.74485
1973.1916	184.99275
1992.5824	204.6214
END IONS

BEGIN IONS
TITLE=13: Scan 1577 (rt=8.82058) [\\10.152.171.215\msdata5$\users_files\Tobias\master\data\HeLa\2_nd_measurenment\P015940\01533_B12_P015940_B00_A00_R3.raw]
PEPMASS=1268.9236 353721.84
CHARGE=2+
SCANS=1577
RAWSCANS=sn1577
RTINSECONDS=529.23499
104.10682	2015.7481
248.99274	276.48794
253.06992	348.68517
152.02515	137.43963
178.20145	207.38585
184.07317	9464.3447
212.57971	154.44879
222.7316	170.91304
226.08401	231.14671
233.79337	127.12365
256.09211	504.69486
277.32697	191.21171
283.41033	118.218
291.10949	1661.9058
303.06445	167.10611
310.10462	5174.87
624.93112	163.90412
327.13006	1070.0437
655.22324	2320.2407
658.46081	158.7367
334.79154	166.71048
339.09366	132.36058
346.12901	823.79514
691.58161	293.08533
354.03443	156.63874
365.99017	160.00697
403.13986	175.07733
408.64993	843.18235
834.30213	1083.0063
438.18112	162.75152
471.17298	240.84316
977.35254	3077.4489
490.16126	739.6866
507.19403	1644.0852
632.30383	164.23914
1301.4485	724.55164
652.21642	218.90897
654.81256	169.25038
669.25	178.69403
714.74365	184.97064
732.75757	167.10468
755.48468	168.05592
814.27441	177.20643
896.48523	206.58852
1073.3138	216.4414
END IONS

BEGIN IONS
TITLE=14: Scan 1578 (rt=8.82301) [\\10.152.171.215\msdata5$\users_files\Tobias\master\data\HeLa\2_nd_measurenment\P015940\01533_B12_P015940_B00_A00_R3.raw]
PEPMASS=1275.9312 460562.56
CHARGE=2+
SCANS=1578
RAWSCANS=sn1578
RTINSECONDS=529.38056
104.10697	2781.6946
124.99962	430.14754
127.03897	564.3792
140.07058	2633.3595
145.04921	151.47457
147.42165	506.96375
351.17509	178.71462
355.41524	300.38353
184.07319	13297.184
226.08361	1105.4349
246.05171	237.60437
256.09451	590.72016
268.09488	206.53323
305.12606	260.70367
310.1047	8149.5092
323.13599	1497.8231
328.11516	2502.6587
341.14694	1618.6492
346.12524	1132.402
359.15887	176.47724
830.30721	1185.8208
424.6629	600.50214
490.16785	1505.4576
992.35845	1088.7847
503.19935	1289.3662
508.17859	287.68601
521.20953	1209.1357
578.21094	257.52776
652.22046	570.58819
665.25055	318.40145
END IONS

BEGIN IONS
TITLE=15: Scan 1582 (rt=8.83936) [\\10.152.171.215\msdata5$\users_files\Tobias\master\data\HeLa\2_nd_measurenment\P015940\01533_B12_P015940_B00_A00_R3.raw]
PEPMASS=1169.4152 433170.25
CHARGE=2+
SCANS=1582
RAWSCANS=sn1582
RTINSECONDS=530.36168
202.89125	58.503848
207.13312	65.106587
213.18683	60.74583
217.04929	807.59588
219.1129	1107.945
112.07543	320.47779
116.07046	181.80028
117.22251	68.621375
122.05977	81.68301
127.03928	1295.2947
255.16805	114.07099
130.08592	152.41265
137.16978	78.703243
139.03975	149.6754
279.13362	750.24858
145.04947	1752.9861
158.08106	2527.9167
163.06021	246.66389
169.04948	199.20151
176.0916	25038.632
187.05987	467.06535
205.0705	2558.6963
432.3421	145.76194
218.09729	172.60467
219.05551	123.80033
239.97995	151.66505
248.82855	143.5467
252.796	158.01871
257.48123	169.60702
267.71146	132.83645
284.57448	155.46144
289.09042	159.95627
290.81711	145.18202
293.78907	146.69868
304.36148	155.92625
320.13461	281.75055
325.1123	1003.8541
338.1442	1017.1538
372.73544	158.42869
405.8522	162.96415
479.94427	162.94906
500.19562	716.39764
507.12294	193.66754
508.99298	156.80707
566.448	191.74405
576.91803	183.01439
594.15655	191.37658
599.87408	170.02747
608.04437	172.23303
635.55682	168.15588
662.25165	547.14249
708.26855	188.52461
714.47937	167.19598
867.82764	175.0129
904.32257	166.19871
925.07587	180.49876
982.93432	164.31279
1002.6797	164.27517
1068.6896	179.81767
1077.3197	167.43343
1143.3185	187.21634
1169.5349	333.42856
1220.5441	179.30787
1267.3092	197.19162
1387.5909	164.96455
1515.558	174.12016
1556.2238	189.24473
1596.5507	175.09274
1602.6374	169.41172
1685.7687	190.84844
1699.4713	156.55894
1731.3208	162.45734
1902.0975	179.67921
1978.3063	171.20654
END IONS

BEGIN IONS
TITLE=16: Scan 1583 (rt=8.84179) [\\10.152.171.215\msdata5$\users_files\Tobias\master\data\HeLa\2_nd_measurenment\P015940\01533_B12_P015940_B00_A00_R3.raw]
PEPMASS=1164.3999 278401.81
CHARGE=2+
SCANS=1583
RAWSCANS=sn1583
RTINSECONDS=530.50727
104.10704	583.47881
109.02847	846.69607
112.00218	67.722026
123.49252	68.548584
127.03901	1502.3639
276.10353	89.53911
277.71761	86.748517
140.07066	988.68037
289.09178	1512.3863
147.41886	560.15952
325.10508	149.50146
163.45855	60.896872
337.09221	218.57287
171.07703	583.59133
178.21187	245.90181
184.07316	4003.2496
187.05957	319.38834
205.07074	1662.3017
209.40167	126.30581
226.08314	415.71163
499.49769	160.03206
252.10312	539.32944
256.09472	220.12434
263.42647	303.71724
281.44681	152.10234
318.39273	159.54285
323.13634	1311.5856
649.21209	228.13911
333.13034	535.96934
341.1466	1567.5857
359.15738	259.03899
383.66714	168.2019
392.44998	152.98408
435.19928	138.58931
439.2454	160.93056
441.46904	158.15255
485.19281	183.68857
503.19895	2295.9246
516.18811	211.52054
521.21002	174.67584
607.06591	174.408
624.66064	180.59693
658.88989	233.61423
665.25217	2166.9018
690.15973	178.77927
744.45764	168.89008
754.80829	185.7779
763.36736	185.30206
781.89435	168.35506
791.28772	166.28983
807.33331	168.04657
827.30692	1007.8153
849.12011	182.06443
862.57922	173.93778
888.64154	184.18637
919.65289	175.47323
931.09308	205.88495
940.81732	167.12951
964.54877	164.76516
989.35791	390.71039
1019.8285	168.95154
1031.3658	250.21445
1033.7318	176.47854
1124.4193	171.08228
1144.97	168.62385
1193.431	186.34469
1223.8392	179.02256
1238.6675	178.82412
1421.51	171.28611
1453.4156	182.23146
1485.0135	185.00159
1536.4285	169.96637
1576.7123	169.69649
1666.7034	160.36685
1820.6546	174.23738
1860.5246	170.75916
1877.9554	216.34902
1922.5461	178.62939
END IONS

